Twotheta      Intensity
   20.000      257
   20.015      264
   20.030      292
   20.045      271
   20.060      290
   20.075      265
   20.090      257
   20.105      252
   20.120      257
   20.135      262
   20.150      268
   20.165      239
   20.180      245
   20.195      251
   20.210      261
   20.225      269
   20.240      285
   20.255      256
   20.270      279
   20.285      290
   20.300      287
   20.315      289
   20.330      260
   20.345      277
   20.360      263
   20.375      275
   20.390      287
   20.405      279
   20.420      284
   20.435      264
   20.450      280
   20.465      275
   20.480      263
   20.495      267
   20.510      279
   20.525      258
   20.540      233
   20.555      252
   20.570      261
   20.585      258
   20.600      298
   20.615      276
   20.630      275
   20.645      271
   20.660      280
   20.675      251
   20.690      261
   20.705      280
   20.720      278
   20.735      286
   20.750      283
   20.765      261
   20.780      290
   20.795      301
   20.810      263
   20.825      279
   20.840      292
   20.855      282
   20.870      273
   20.885      291
   20.900      287
   20.915      269
   20.930      286
   20.945      271
   20.960      256
   20.975      285
   20.990      289
   21.005      300
   21.020      308
   21.035      284
   21.050      268
   21.065      266
   21.080      263
   21.095      269
   21.110      270
   21.125      264
   21.140      251
   21.155      291
   21.170      275
   21.185      286
   21.200      265
   21.215      290
   21.230      269
   21.245      282
   21.260      270
   21.275      276
   21.290      294
   21.305      278
   21.320      280
   21.335      317
   21.350      267
   21.365      294
   21.380      285
   21.395      281
   21.410      267
   21.425      277
   21.440      282
   21.455      291
   21.470      277
   21.485      272
   21.500      284
   21.515      275
   21.530      281
   21.545      296
   21.560      287
   21.575      291
   21.590      266
   21.605      294
   21.620      310
   21.635      242
   21.650      291
   21.665      289
   21.680      312
   21.695      281
   21.710      262
   21.725      265
   21.740      279
   21.755      295
   21.770      260
   21.785      274
   21.800      297
   21.815      284
   21.830      283
   21.845      294
   21.860      279
   21.875      265
   21.890      293
   21.905      289
   21.920      276
   21.935      263
   21.950      273
   21.965      287
   21.980      299
   21.995      258
   22.010      266
   22.025      251
   22.040      267
   22.055      278
   22.070      252
   22.085      237
   22.100      251
   22.115      269
   22.130      269
   22.145      280
   22.160      279
   22.175      240
   22.190      266
   22.205      268
   22.220      251
   22.235      264
   22.250      259
   22.265      266
   22.280      279
   22.295      274
   22.310      267
   22.325      267
   22.340      264
   22.355      242
   22.370      264
   22.385      271
   22.400      240
   22.415      259
   22.430      254
   22.445      256
   22.460      261
   22.475      249
   22.490      251
   22.505      249
   22.520      260
   22.535      275
   22.550      271
   22.565      242
   22.580      268
   22.595      274
   22.610      265
   22.625      260
   22.640      274
   22.655      271
   22.670      267
   22.685      255
   22.700      260
   22.715      250
   22.730      254
   22.745      284
   22.760      295
   22.775      292
   22.790      263
   22.805      248
   22.820      245
   22.835      257
   22.850      247
   22.865      246
   22.880      265
   22.895      270
   22.910      290
   22.925      280
   22.940      279
   22.955      271
   22.970      257
   22.985      264
   23.000      258
   23.015      232
   23.030      260
   23.045      266
   23.060      282
   23.075      270
   23.090      268
   23.105      262
   23.120      267
   23.135      268
   23.150      302
   23.165      281
   23.180      289
   23.195      275
   23.210      258
   23.225      258
   23.240      250
   23.255      261
   23.270      251
   23.285      277
   23.300      282
   23.315      269
   23.330      274
   23.345      279
   23.360      274
   23.375      265
   23.390      267
   23.405      267
   23.420      264
   23.435      268
   23.450      275
   23.465      246
   23.480      272
   23.495      265
   23.510      277
   23.525      299
   23.540      277
   23.555      271
   23.570      280
   23.585      276
   23.600      258
   23.615      281
   23.630      284
   23.645      265
   23.660      251
   23.675      258
   23.690      262
   23.705      286
   23.720      275
   23.735      267
   23.750      250
   23.765      256
   23.780      254
   23.795      261
   23.810      286
   23.825      266
   23.840      272
   23.855      269
   23.870      257
   23.885      268
   23.900      275
   23.915      272
   23.930      256
   23.945      264
   23.960      285
   23.975      256
   23.990      245
   24.005      242
   24.020      253
   24.035      231
   24.050      262
   24.065      256
   24.080      275
   24.095      283
   24.110      254
   24.125      240
   24.140      235
   24.155      269
   24.170      242
   24.185      262
   24.200      276
   24.215      271
   24.230      281
   24.245      280
   24.260      257
   24.275      260
   24.290      257
   24.305      257
   24.320      260
   24.335      255
   24.350      258
   24.365      283
   24.380      290
   24.395      288
   24.410      282
   24.425      265
   24.440      276
   24.455      254
   24.470      230
   24.485      243
   24.500      269
   24.515      261
   24.530      268
   24.545      241
   24.560      261
   24.575      284
   24.590      267
   24.605      272
   24.620      253
   24.635      273
   24.650      245
   24.665      226
   24.680      256
   24.695      269
   24.710      245
   24.725      265
   24.740      272
   24.755      237
   24.770      254
   24.785      251
   24.800      266
   24.815      256
   24.830      246
   24.845      257
   24.860      276
   24.875      271
   24.890      288
   24.905      254
   24.920      265
   24.935      262
   24.950      277
   24.965      310
   24.980      259
   24.995      278
   25.010      275
   25.025      272
   25.040      276
   25.055      251
   25.070      280
   25.085      281
   25.100      285
   25.115      282
   25.130      289
   25.145      300
   25.160      285
   25.175      270
   25.190      278
   25.205      292
   25.220      280
   25.235      303
   25.250      306
   25.265      283
   25.280      306
   25.295      300
   25.310      290
   25.325      333
   25.340      310
   25.355      325
   25.370      327
   25.385      334
   25.400      337
   25.415      322
   25.430      362
   25.445      380
   25.460      343
   25.475      376
   25.490      385
   25.505      402
   25.520      424
   25.535      425
   25.550      497
   25.565      485
   25.580      519
   25.595      483
   25.610      528
   25.625      500
   25.640      539
   25.655      538
   25.670      533
   25.685      576
   25.700      531
   25.715      594
   25.730      578
   25.745      556
   25.760      564
   25.775      545
   25.790      564
   25.805      563
   25.820      531
   25.835      486
   25.850      458
   25.865      458
   25.880      380
   25.895      359
   25.910      377
   25.925      391
   25.940      353
   25.955      335
   25.970      334
   25.985      313
   26.000      336
   26.015      319
   26.030      324
   26.045      298
   26.060      310
   26.075      290
   26.090      280
   26.105      270
   26.120      286
   26.135      312
   26.150      277
   26.165      296
   26.180      277
   26.195      261
   26.210      260
   26.225      247
   26.240      248
   26.255      256
   26.270      273
   26.285      292
   26.300      296
   26.315      294
   26.330      254
   26.345      267
   26.360      257
   26.375      262
   26.390      273
   26.405      245
   26.420      248
   26.435      251
   26.450      248
   26.465      259
   26.480      230
   26.495      249
   26.510      283
   26.525      264
   26.540      263
   26.555      250
   26.570      259
   26.585      248
   26.600      265
   26.615      262
   26.630      261
   26.645      222
   26.660      252
   26.675      240
   26.690      232
   26.705      268
   26.720      269
   26.735      276
   26.750      257
   26.765      270
   26.780      233
   26.795      257
   26.810      262
   26.825      266
   26.840      267
   26.855      261
   26.870      259
   26.885      265
   26.900      259
   26.915      252
   26.930      251
   26.945      291
   26.960      261
   26.975      271
   26.990      251
   27.005      235
   27.020      260
   27.035      282
   27.050      271
   27.065      283
   27.080      251
   27.095      271
   27.110      247
   27.125      255
   27.140      271
   27.155      263
   27.170      254
   27.185      265
   27.200      271
   27.215      256
   27.230      230
   27.245      242
   27.260      267
   27.275      268
   27.290      234
   27.305      258
   27.320      261
   27.335      277
   27.350      256
   27.365      281
   27.380      245
   27.395      270
   27.410      242
   27.425      253
   27.440      279
   27.455      255
   27.470      254
   27.485      283
   27.500      274
   27.515      276
   27.530      248
   27.545      278
   27.560      271
   27.575      253
   27.590      269
   27.605      269
   27.620      269
   27.635      249
   27.650      224
   27.665      257
   27.680      269
   27.695      261
   27.710      232
   27.725      275
   27.740      288
   27.755      267
   27.770      267
   27.785      296
   27.800      251
   27.815      296
   27.830      279
   27.845      258
   27.860      269
   27.875      271
   27.890      237
   27.905      251
   27.920      252
   27.935      265
   27.950      268
   27.965      277
   27.980      251
   27.995      251
   28.010      251
   28.025      230
   28.040      250
   28.055      253
   28.070      250
   28.085      255
   28.100      253
   28.115      254
   28.130      252
   28.145      236
   28.160      250
   28.175      253
   28.190      287
   28.205      288
   28.220      287
   28.235      273
   28.250      275
   28.265      262
   28.280      233
   28.295      228
   28.310      288
   28.325      262
   28.340      245
   28.355      252
   28.370      246
   28.385      248
   28.400      244
   28.415      250
   28.430      242
   28.445      242
   28.460      244
   28.475      244
   28.490      250
   28.505      271
   28.520      254
   28.535      251
   28.550      249
   28.565      238
   28.580      227
   28.595      254
   28.610      270
   28.625      249
   28.640      280
   28.655      249
   28.670      253
   28.685      254
   28.700      242
   28.715      257
   28.730      301
   28.745      272
   28.760      263
   28.775      239
   28.790      248
   28.805      275
   28.820      268
   28.835      249
   28.850      248
   28.865      247
   28.880      276
   28.895      251
   28.910      236
   28.925      261
   28.940      250
   28.955      246
   28.970      260
   28.985      275
   29.000      257
   29.015      263
   29.030      253
   29.045      242
   29.060      271
   29.075      298
   29.090      302
   29.105      273
   29.120      282
   29.135      288
   29.150      269
   29.165      295
   29.180      301
   29.195      283
   29.210      315
   29.225      300
   29.240      306
   29.255      303
   29.270      331
   29.285      343
   29.300      311
   29.315      334
   29.330      358
   29.345      371
   29.360      363
   29.375      351
   29.390      344
   29.405      371
   29.420      379
   29.435      367
   29.450      400
   29.465      439
   29.480      455
   29.495      448
   29.510      452
   29.525      450
   29.540      536
   29.555      534
   29.570      538
   29.585      584
   29.600      623
   29.615      640
   29.630      685
   29.645      780
   29.660      861
   29.675      876
   29.690      902
   29.705      950
   29.720     1034
   29.735     1120
   29.750     1111
   29.765     1291
   29.780     1323
   29.795     1366
   29.810     1385
   29.825     1423
   29.840     1521
   29.855     1550
   29.870     1491
   29.885     1413
   29.900     1327
   29.915     1320
   29.930     1176
   29.945     1057
   29.960      996
   29.975      890
   29.990      793
   30.005      710
   30.020      658
   30.035      572
   30.050      561
   30.065      525
   30.080      491
   30.095      483
   30.110      426
   30.125      398
   30.140      429
   30.155      375
   30.170      378
   30.185      346
   30.200      380
   30.215      349
   30.230      314
   30.245      339
   30.260      328
   30.275      293
   30.290      313
   30.305      355
   30.320      320
   30.335      300
   30.350      289
   30.365      303
   30.380      305
   30.395      287
   30.410      263
   30.425      280
   30.440      286
   30.455      279
   30.470      271
   30.485      257
   30.500      268
   30.515      264
   30.530      284
   30.545      259
   30.560      291
   30.575      281
   30.590      256
   30.605      248
   30.620      271
   30.635      284
   30.650      264
   30.665      267
   30.680      255
   30.695      241
   30.710      258
   30.725      241
   30.740      251
   30.755      277
   30.770      251
   30.785      271
   30.800      276
   30.815      275
   30.830      253
   30.845      268
   30.860      275
   30.875      268
   30.890      277
   30.905      271
   30.920      251
   30.935      259
   30.950      244
   30.965      246
   30.980      233
   30.995      266
   31.010      248
   31.025      247
   31.040      256
   31.055      285
   31.070      266
   31.085      250
   31.100      256
   31.115      251
   31.130      261
   31.145      253
   31.160      254
   31.175      264
   31.190      259
   31.205      257
   31.220      225
   31.235      269
   31.250      279
   31.265      254
   31.280      254
   31.295      260
   31.310      257
   31.325      264
   31.340      259
   31.355      248
   31.370      248
   31.385      263
   31.400      253
   31.415      272
   31.430      262
   31.445      253
   31.460      280
   31.475      242
   31.490      240
   31.505      235
   31.520      254
   31.535      277
   31.550      278
   31.565      266
   31.580      236
   31.595      273
   31.610      267
   31.625      258
   31.640      229
   31.655      239
   31.670      242
   31.685      230
   31.700      262
   31.715      278
   31.730      245
   31.745      241
   31.760      243
   31.775      266
   31.790      254
   31.805      276
   31.820      243
   31.835      263
   31.850      267
   31.865      282
   31.880      233
   31.895      256
   31.910      260
   31.925      243
   31.940      266
   31.955      248
   31.970      256
   31.985      253
   32.000      219
   32.015      257
   32.030      242
   32.045      247
   32.060      268
   32.075      235
   32.090      256
   32.105      259
   32.120      273
   32.135      254
   32.150      246
   32.165      254
   32.180      241
   32.195      261
   32.210      238
   32.225      234
   32.240      238
   32.255      248
   32.270      248
   32.285      272
   32.300      273
   32.315      257
   32.330      239
   32.345      257
   32.360      234
   32.375      248
   32.390      225
   32.405      247
   32.420      262
   32.435      255
   32.450      262
   32.465      237
   32.480      265
   32.495      249
   32.510      238
   32.525      269
   32.540      259
   32.555      267
   32.570      250
   32.585      260
   32.600      243
   32.615      234
   32.630      243
   32.645      209
   32.660      223
   32.675      249
   32.690      277
   32.705      253
   32.720      241
   32.735      232
   32.750      260
   32.765      245
   32.780      243
   32.795      265
   32.810      263
   32.825      247
   32.840      245
   32.855      277
   32.870      256
   32.885      248
   32.900      236
   32.915      247
   32.930      234
   32.945      248
   32.960      234
   32.975      253
   32.990      256
   33.005      265
   33.020      240
   33.035      270
   33.050      284
   33.065      266
   33.080      300
   33.095      278
   33.110      277
   33.125      266
   33.140      262
   33.155      287
   33.170      263
   33.185      268
   33.200      294
   33.215      278
   33.230      268
   33.245      271
   33.260      283
   33.275      305
   33.290      262
   33.305      256
   33.320      249
   33.335      257
   33.350      245
   33.365      226
   33.380      284
   33.395      248
   33.410      252
   33.425      266
   33.440      261
   33.455      246
   33.470      261
   33.485      227
   33.500      257
   33.515      269
   33.530      252
   33.545      290
   33.560      258
   33.575      251
   33.590      218
   33.605      260
   33.620      216
   33.635      228
   33.650      259
   33.665      245
   33.680      257
   33.695      256
   33.710      250
   33.725      274
   33.740      258
   33.755      237
   33.770      238
   33.785      250
   33.800      252
   33.815      238
   33.830      254
   33.845      266
   33.860      235
   33.875      229
   33.890      261
   33.905      239
   33.920      271
   33.935      283
   33.950      268
   33.965      230
   33.980      232
   33.995      246
   34.010      253
   34.025      249
   34.040      262
   34.055      248
   34.070      270
   34.085      248
   34.100      234
   34.115      229
   34.130      243
   34.145      247
   34.160      235
   34.175      240
   34.190      272
   34.205      263
   34.220      206
   34.235      217
   34.250      240
   34.265      255
   34.280      256
   34.295      235
   34.310      235
   34.325      239
   34.340      244
   34.355      248
   34.370      246
   34.385      214
   34.400      234
   34.415      228
   34.430      229
   34.445      230
   34.460      240
   34.475      239
   34.490      257
   34.505      228
   34.520      228
   34.535      249
   34.550      269
   34.565      253
   34.580      228
   34.595      247
   34.610      240
   34.625      245
   34.640      254
   34.655      283
   34.670      254
   34.685      229
   34.700      256
   34.715      233
   34.730      249
   34.745      257
   34.760      244
   34.775      247
   34.790      272
   34.805      271
   34.820      248
   34.835      241
   34.850      213
   34.865      234
   34.880      216
   34.895      252
   34.910      237
   34.925      266
   34.940      248
   34.955      245
